  31885HL2A1 0 6               ;-SHOT #- F(X) DATA -UF1DWR- 12Oct2005
 05/05/17                      ;-SHOT DATE-  UFILES ASCII FILE SYSTEM
   0                           ;-NUMBER OF ASSOCIATED SCALAR QUANTITIES-
 x		 (r/a)		;-INDEPENDENT VARIABLE LABEL: X-
 TIME		 SEC		;-INDEPENDENT VARIABLE LABEL: Y-
 Electron Density		 N/CM**3		;-DEPENDENT VARIABLE LABEL-
 0                             ;-PROC CODE- 0:RAW 1:AVG 2:SM. 3:AVG+SM
        38                    ;-# OF X PTS-
        16                    ;-# OF Y PTS- X,Y,F(X,Y) DATA FOLLOW:
  1.315789E-02 3.947368E-02 6.578947E-02 9.210526E-02 1.184211E-01 1.447368E-01 
  1.710526E-01 1.973684E-01 2.236842E-01 2.500000E-01 2.763158E-01 3.026316E-01 
  3.289474E-01 3.552632E-01 3.815789E-01 4.078947E-01 4.342105E-01 4.605263E-01 
  4.868421E-01 5.131579E-01 5.394737E-01 5.657895E-01 5.921053E-01 6.184211E-01 
  6.447368E-01 6.710526E-01 6.973684E-01 7.236842E-01 7.500000E-01 7.763158E-01 
  8.026316E-01 8.289474E-01 8.552632E-01 8.815789E-01 9.078947E-01 9.342105E-01 
  9.605263E-01 9.868421E-01 
  2.000000E+02 2.500000E+02 3.000000E+02 3.500000E+02 4.000000E+02 4.500000E+02 
  5.000000E+02 5.500000E+02 6.000000E+02 6.500000E+02 7.000000E+02 7.500000E+02 
  8.000000E+02 8.500000E+02 9.000000E+02 9.500000E+02 
  2.046639E+12 2.114785E+12 2.055198E+12 2.198235E+12 2.193716E+12 1.858224E+12 
  1.800288E+12 1.914765E+12 1.908324E+12 1.901035E+12 1.968391E+12 2.077641E+12 
  2.048697E+12 2.138635E+12 2.116574E+12 2.528949E+12 3.164965E+12 3.297755E+12 
  3.505495E+12 3.963650E+12 3.854039E+12 3.384886E+12 3.161020E+12 3.267472E+12 
  3.426718E+12 3.424838E+12 3.589445E+12 3.610710E+12 3.478232E+12 3.893160E+12 
  4.400160E+12 4.932449E+12 4.145481E+12 4.343055E+12 4.716118E+12 5.412815E+12 
  5.231142E+12 4.608245E+12 4.258726E+12 4.388413E+12 4.655896E+12 4.654742E+12 
  4.910424E+12 4.916789E+12 4.715701E+12 5.360986E+12 6.204360E+12 6.834002E+12 
  4.998655E+12 5.258794E+12 5.728646E+12 6.604505E+12 6.370992E+12 5.605605E+12 
  5.158250E+12 5.326493E+12 5.666887E+12 5.662471E+12 6.005625E+12 6.039091E+12 
  5.794361E+12 6.601941E+12 7.656414E+12 8.343108E+12 5.736231E+12 6.054993E+12 
  6.579301E+12 7.588665E+12 7.314083E+12 6.439258E+12 5.912514E+12 6.122731E+12 
  6.517118E+12 6.506184E+12 6.934803E+12 7.014437E+12 6.743407E+12 7.665803E+12 
  8.857104E+12 9.547531E+12 6.370741E+12 6.742992E+12 7.299445E+12 8.407434E+12 
  8.095897E+12 7.158572E+12 6.564108E+12 6.811202E+12 7.252307E+12 7.232344E+12 
  7.745229E+12 7.873954E+12 7.588291E+12 8.593558E+12 9.884657E+12 1.051655E+13 
  6.915084E+12 7.334948E+12 7.916042E+12 9.096080E+12 8.747334E+12 7.801894E+12 
  7.146719E+12 7.419888E+12 7.908163E+12 7.877397E+12 8.473544E+12 8.643712E+12 
  8.351023E+12 9.418553E+12 1.079828E+13 1.130387E+13 7.382167E+12 7.843386E+12 
  8.452086E+12 9.683844E+12 9.295119E+12 8.398244E+12 7.686427E+12 7.971462E+12 
  8.511924E+12 8.469290E+12 9.147428E+12 9.345316E+12 9.050461E+12 1.016753E+13 
  1.164128E+13 1.195025E+13 7.784598E+12 8.280829E+12 8.926999E+12 1.019472E+13 
  9.762175E+12 8.968845E+12 8.202869E+12 8.483994E+12 9.083725E+12 9.028829E+12 
  9.787082E+12 9.996436E+12 9.702574E+12 1.086158E+13 1.244392E+13 1.248579E+13 
  8.134434E+12 8.659476E+12 9.357002E+12 1.064815E+13 1.016799E+13 9.528469E+12 
  8.710275E+12 8.971586E+12 9.637823E+12 9.570884E+12 1.040655E+13 1.061130E+13 
  1.032070E+13 1.151696E+13 1.322584E+13 1.293203E+13 8.442970E+12 8.990944E+12 
  9.755456E+12 1.105965E+13 1.052892E+13 1.008664E+13 9.218396E+12 9.444950E+12 
  1.018367E+13 1.010547E+13 1.101491E+13 1.120113E+13 1.091580E+13 1.214587E+13 
  1.399831E+13 1.330368E+13 8.720581E+12 9.286057E+12 1.013317E+13 1.144140E+13 
  1.085855E+13 1.064870E+13 9.733320E+12 9.911920E+12 1.072689E+13 1.063867E+13 
  1.161724E+13 1.177455E+13 1.149665E+13 1.275711E+13 1.476604E+13 1.361021E+13 
  8.976595E+12 9.554681E+12 1.049872E+13 1.180269E+13 1.116792E+13 1.121669E+13 
  1.025819E+13 1.037792E+13 1.127005E+13 1.117348E+13 1.221559E+13 1.233795E+13 
  1.207011E+13 1.335669E+13 1.552891E+13 1.385722E+13 9.219213E+12 9.805605E+12 
  1.085866E+13 1.215046E+13 1.146585E+13 1.179020E+13 1.079384E+13 1.084635E+13 
  1.181345E+13 1.171054E+13 1.280968E+13 1.289583E+13 1.264128E+13 1.394832E+13 
  1.628335E+13 1.404756E+13 9.455447E+12 1.004646E+13 1.121784E+13 1.248961E+13 
  1.175915E+13 1.236698E+13 1.133931E+13 1.131898E+13 1.235570E+13 1.224868E+13 
  1.339759E+13 1.345104E+13 1.321370E+13 1.453392E+13 1.702350E+13 1.418226E+13 
  9.691101E+12 1.028365E+13 1.157957E+13 1.282343E+13 1.205288E+13 1.294359E+13 
  1.189237E+13 1.179625E+13 1.289423E+13 1.278554E+13 1.397634E+13 1.400510E+13 
  1.378954E+13 1.511395E+13 1.774226E+13 1.426139E+13 9.930774E+12 1.052239E+13 
  1.194587E+13 1.315384E+13 1.235053E+13 1.351582E+13 1.244984E+13 1.227753E+13 
  1.342575E+13 1.331790E+13 1.454227E+13 1.455840E+13 1.436977E+13 1.568781E+13 
  1.843202E+13 1.428468E+13 1.017788E+13 1.076663E+13 1.231761E+13 1.348172E+13 
  1.265427E+13 1.407913E+13 1.300797E+13 1.276139E+13 1.394661E+13 1.384215E+13 
  1.509150E+13 1.511044E+13 1.495430E+13 1.625409E+13 1.908538E+13 1.425198E+13 
  1.043470E+13 1.101918E+13 1.269475E+13 1.380707E+13 1.296510E+13 1.462892E+13 
  1.356272E+13 1.324579E+13 1.445305E+13 1.435450E+13 1.562017E+13 1.565995E+13 
  1.554215E+13 1.681084E+13 1.969563E+13 1.416373E+13 1.070244E+13 1.128170E+13 
  1.307643E+13 1.412930E+13 1.328301E+13 1.516082E+13 1.410993E+13 1.372825E+13 
  1.494149E+13 1.485124E+13 1.612471E+13 1.620511E+13 1.613156E+13 1.735576E+13 
  2.025706E+13 1.402117E+13 1.098130E+13 1.155479E+13 1.346115E+13 1.444731E+13 
  1.360718E+13 1.567084E+13 1.464554E+13 1.420601E+13 1.540863E+13 1.532892E+13 
  1.660198E+13 1.674368E+13 1.672014E+13 1.788635E+13 2.076530E+13 1.382654E+13 
  1.127060E+13 1.183811E+13 1.384689E+13 1.475968E+13 1.393610E+13 1.615551E+13 
  1.516570E+13 1.467614E+13 1.585161E+13 1.578447E+13 1.704939E+13 1.727307E+13 
  1.730499E+13 1.840007E+13 2.121740E+13 1.358318E+13 1.156883E+13 1.213043E+13 
  1.423122E+13 1.506478E+13 1.426767E+13 1.661197E+13 1.566687E+13 1.513565E+13 
  1.626808E+13 1.621527E+13 1.746497E+13 1.779052E+13 1.788279E+13 1.889444E+13 
  2.161193E+13 1.329553E+13 1.187379E+13 1.242975E+13 1.461141E+13 1.536085E+13 
  1.459938E+13 1.703801E+13 1.614589E+13 1.558158E+13 1.665624E+13 1.661923E+13 
  1.784741E+13 1.829312E+13 1.844993E+13 1.936707E+13 2.194894E+13 1.296912E+13 
  1.218267E+13 1.273344E+13 1.498451E+13 1.564612E+13 1.492841E+13 1.743206E+13 
  1.659999E+13 1.601104E+13 1.701482E+13 1.699478E+13 1.819602E+13 1.877793E+13 
  1.900259E+13 1.981579E+13 2.222990E+13 1.261046E+13 1.249221E+13 1.303835E+13 
  1.534748E+13 1.591879E+13 1.525168E+13 1.779317E+13 1.702684E+13 1.642127E+13 
  1.734313E+13 1.734084E+13 1.851074E+13 1.924202E+13 1.953682E+13 2.023862E+13 
  2.245757E+13 1.222691E+13 1.279878E+13 1.334091E+13 1.569718E+13 1.617716E+13 
  1.556600E+13 1.812097E+13 1.742452E+13 1.680968E+13 1.764093E+13 1.765685E+13 
  1.879206E+13 1.968253E+13 2.004864E+13 2.063382E+13 2.263582E+13 1.182650E+13 
  1.309852E+13 1.363725E+13 1.603053E+13 1.641961E+13 1.586813E+13 1.841562E+13 
  1.779149E+13 1.717387E+13 1.790844E+13 1.794266E+13 1.904095E+13 2.009672E+13 
  2.053411E+13 2.099989E+13 2.276945E+13 1.141778E+13 1.338741E+13 1.392338E+13 
  1.634451E+13 1.664465E+13 1.615484E+13 1.867768E+13 1.812661E+13 1.751165E+13 
  1.814627E+13 1.819851E+13 1.925874E+13 2.048200E+13 2.098939E+13 2.133557E+13 
  2.286396E+13 1.100958E+13 1.366143E+13 1.419522E+13 1.663622E+13 1.685093E+13 
  1.642302E+13 1.890809E+13 1.842902E+13 1.782105E+13 1.835530E+13 1.842493E+13 
  1.944711E+13 2.083594E+13 2.141078E+13 2.163982E+13 2.292531E+13 1.061079E+13 
  1.391662E+13 1.444876E+13 1.690294E+13 1.703722E+13 1.666968E+13 1.910802E+13 
  1.869817E+13 1.810031E+13 1.853664E+13 1.862268E+13 1.960788E+13 2.115632E+13 
  2.179483E+13 2.191178E+13 2.295971E+13 1.023018E+13 1.414923E+13 1.468016E+13 
  1.714216E+13 1.720246E+13 1.689205E+13 1.927880E+13 1.893371E+13 1.834789E+13 
  1.869151E+13 1.879268E+13 1.974302E+13 2.144113E+13 2.213834E+13 2.215081E+13 
  2.297335E+13 9.876159E+12 1.435575E+13 1.488583E+13 1.735161E+13 1.734575E+13 
  1.708763E+13 1.942185E+13 1.913548E+13 1.856248E+13 1.882122E+13 1.893594E+13 
  1.985447E+13 2.168861E+13 2.243841E+13 2.235639E+13 2.297221E+13 9.556579E+12 
  1.453301E+13 1.506254E+13 1.752930E+13 1.746630E+13 1.725416E+13 1.953854E+13 
  1.930344E+13 1.874296E+13 1.892703E+13 1.905345E+13 1.994409E+13 2.189721E+13 
  2.269250E+13 2.252815E+13 2.296184E+13 9.278553E+12 1.467827E+13 1.520747E+13 
  1.767353E+13 1.756347E+13 1.738976E+13 1.963015E+13 1.943764E+13 1.888842E+13 
  1.901009E+13 1.914616E+13 2.001355E+13 2.206564E+13 2.289845E+13 2.266582E+13 
  2.294718E+13 9.048285E+12 1.478927E+13 1.531828E+13 1.778294E+13 1.763679E+13 
  1.749284E+13 1.969780E+13 1.953817E+13 1.899813E+13 1.907144E+13 1.921490E+13 
  2.006431E+13 2.219288E+13 2.305448E+13 2.276921E+13 2.293237E+13 8.870918E+12 
  1.486425E+13 1.539317E+13 1.785646E+13 1.768586E+13 1.756223E+13 1.974239E+13 
  1.960512E+13 1.907156E+13 1.911187E+13 1.926034E+13 2.009750E+13 2.227814E+13 
  2.315926E+13 2.283820E+13 2.292064E+13 8.750420E+12 1.490204E+13 1.543092E+13 
  1.789340E+13 1.771046E+13 1.759713E+13 1.976452E+13 1.963857E+13 1.910837E+13 
  1.913194E+13 1.928294E+13 2.011389E+13 2.232090E+13 2.321187E+13 2.287271E+13 
  2.291422E+13 8.689489E+12 
 ;----END-OF-DATA-----------------COMMENTS:-----------
